wavelength,k
1.53846e-15,0.0001
1.53941e-15,0.0001
1.54036e-15,0.0001
1.54131e-15,0.0001
1.54226e-15,0.0001
1.54321e-15,0.0001
1.54416e-15,0.0001
1.54512e-15,0.0001
1.54607e-15,0.0001
1.54703e-15,0.0001
1.54799e-15,0.0001
1.54895e-15,0.0001
1.54991e-15,0.0001
1.55087e-15,0.0001
1.55183e-15,0.0001
1.5528e-15,0.0001
1.55376e-15,0.0001
1.55473e-15,0.0001
1.55569e-15,0.0001
1.55666e-15,0.0001
1.55763e-15,0.0001
1.5586e-15,0.0001
1.55958e-15,0.0001
1.56055e-15,0.0001
1.56152e-15,0.0001
1.5625e-15,0.0001
1.56348e-15,0.0001
1.56446e-15,0.0001
1.56544e-15,0.0001
1.56642e-15,0.0001
1.5674e-15,0.0001
1.56838e-15,0.0001
1.56937e-15,0.0001
1.57035e-15,0.0001
1.57134e-15,0.0001
1.57233e-15,0.0001
1.57332e-15,0.0001
1.57431e-15,0.0001
1.5753e-15,0.0001
1.57629e-15,0.0001
1.57729e-15,0.0001
1.57828e-15,0.0001
1.57928e-15,0.0001
1.58028e-15,0.0001
1.58128e-15,0.0001
1.58228e-15,0.0001
1.58328e-15,0.0001
1.58428e-15,0.0001
1.58529e-15,0.0001
1.58629e-15,0.0001
1.5873e-15,0.0001
1.58831e-15,0.0001
1.58932e-15,0.0001
1.59033e-15,0.0001
1.59134e-15,0.0001
1.59236e-15,0.0001
1.59337e-15,0.0001
1.59439e-15,0.0001
1.59541e-15,0.0001
1.59642e-15,0.0001
1.59744e-15,0.0001
1.59847e-15,0.0001
1.59949e-15,0.0001
1.60051e-15,0.0001
1.60154e-15,0.0001
1.60256e-15,0.0001
1.60359e-15,0.0001
1.60462e-15,0.0001
1.60565e-15,0.0001
1.60668e-15,0.0001
1.60772e-15,0.0001
1.60875e-15,0.00011
1.60979e-15,0.00011
1.61082e-15,0.00011
1.61186e-15,0.00011
1.6129e-15,0.00011
1.61394e-15,0.00011
1.61499e-15,0.00011
1.61603e-15,0.00011
1.61708e-15,0.00011
1.61812e-15,0.00011
1.61917e-15,0.00011
1.62022e-15,0.00011
1.62127e-15,0.00011
1.62232e-15,0.00011
1.62338e-15,0.00011
1.62443e-15,0.00011
1.62549e-15,0.00011
1.62655e-15,0.00011
1.6276e-15,0.00011
1.62866e-15,0.00011
1.62973e-15,0.00011
1.63079e-15,0.00011
1.63185e-15,0.00011
1.63292e-15,0.00011
1.63399e-15,0.00011
1.63506e-15,0.00011
1.63613e-15,0.00011
1.6372e-15,0.00011
1.63827e-15,0.00011
1.63934e-15,0.00011
1.64042e-15,0.00011
1.6415e-15,0.00011
1.64258e-15,0.00011
1.64366e-15,0.00011
1.64474e-15,0.00011
1.64582e-15,0.00011
1.6469e-15,0.00011
1.64799e-15,0.00011
1.64908e-15,0.00011
1.65017e-15,0.00011
1.65125e-15,0.00011
1.65235e-15,0.00011
1.65344e-15,0.00011
1.65453e-15,0.00011
1.65563e-15,0.00011
1.65673e-15,0.00011
1.65782e-15,0.00011
1.65893e-15,0.00011
1.66003e-15,0.00011
1.66113e-15,0.00011
1.66223e-15,0.00011
1.66334e-15,0.00011
1.66445e-15,0.00011
1.66556e-15,0.00011
1.66667e-15,0.00011
1.66778e-15,0.00011
1.66889e-15,0.00011
1.67001e-15,0.00011
1.67112e-15,0.00011
1.67224e-15,0.00011
1.67336e-15,0.00011
1.67448e-15,0.00011
1.6756e-15,0.00011
1.67673e-15,0.00011
1.67785e-15,0.00011
1.67898e-15,0.00011
1.68011e-15,0.00011
1.68124e-15,0.00011
1.68237e-15,0.00011
1.6835e-15,0.00011
1.68464e-15,0.00012
1.68577e-15,0.00012
1.68691e-15,0.00012
1.68805e-15,0.00012
1.68919e-15,0.00012
1.69033e-15,0.00012
1.69147e-15,0.00012
1.69262e-15,0.00012
1.69377e-15,0.00012
1.69492e-15,0.00012
1.69607e-15,0.00012
1.69722e-15,0.00012
1.69837e-15,0.00012
1.69952e-15,0.00012
1.70068e-15,0.00012
1.70184e-15,0.00012
1.703e-15,0.00012
1.70416e-15,0.00012
1.70532e-15,0.00012
1.70648e-15,0.00012
1.70765e-15,0.00012
1.70882e-15,0.00012
1.70999e-15,0.00012
1.71116e-15,0.00012
1.71233e-15,0.00012
1.7135e-15,0.00012
1.71468e-15,0.00012
1.71585e-15,0.00012
1.71703e-15,0.00012
1.71821e-15,0.00012
1.71939e-15,0.00012
1.72058e-15,0.00012
1.72176e-15,0.00012
1.72295e-15,0.00012
1.72414e-15,0.00012
1.72533e-15,0.00012
1.72652e-15,0.00012
1.72771e-15,0.00012
1.72891e-15,0.00012
1.7301e-15,0.00012
1.7313e-15,0.00012
1.7325e-15,0.00012
1.7337e-15,0.00012
1.73491e-15,0.00012
1.73611e-15,0.00012
1.73732e-15,0.00012
1.73853e-15,0.00012
1.73974e-15,0.00012
1.74095e-15,0.00012
1.74216e-15,0.00012
1.74338e-15,0.00012
1.74459e-15,0.00012
1.74581e-15,0.00012
1.74703e-15,0.00012
1.74825e-15,0.00012
1.74948e-15,0.00012
1.7507e-15,0.00012
1.75193e-15,0.00012
1.75316e-15,0.00013
1.75439e-15,0.00013
1.75562e-15,0.00013
1.75685e-15,0.00013
1.75809e-15,0.00013
1.75932e-15,0.00013
1.76056e-15,0.00013
1.7618e-15,0.00013
1.76305e-15,0.00013
1.76429e-15,0.00013
1.76554e-15,0.00013
1.76678e-15,0.00013
1.76803e-15,0.00013
1.76929e-15,0.00013
1.77054e-15,0.00013
1.77179e-15,0.00013
1.77305e-15,0.00013
1.77431e-15,0.00013
1.77557e-15,0.00013
1.77683e-15,0.00013
1.77809e-15,0.00013
1.77936e-15,0.00013
1.78063e-15,0.00013
1.7819e-15,0.00013
1.78317e-15,0.00013
1.78444e-15,0.00013
1.78571e-15,0.00013
1.78699e-15,0.00013
1.78827e-15,0.00013
1.78955e-15,0.00013
1.79083e-15,0.00013
1.79211e-15,0.00013
1.7934e-15,0.00013
1.79469e-15,0.00013
1.79598e-15,0.00013
1.79727e-15,0.00013
1.79856e-15,0.00013
1.79986e-15,0.00013
1.80115e-15,0.00013
1.80245e-15,0.00013
1.80375e-15,0.00013
1.80505e-15,0.00013
1.80636e-15,0.00013
1.80766e-15,0.00013
1.80897e-15,0.00013
1.81028e-15,0.00013
1.81159e-15,0.00013
1.81291e-15,0.00013
1.81422e-15,0.00014
1.81554e-15,0.00014
1.81686e-15,0.00014
1.81818e-15,0.00014
1.81951e-15,0.00014
1.82083e-15,0.00014
1.82216e-15,0.00014
1.82349e-15,0.00014
1.82482e-15,0.00014
1.82615e-15,0.00014
1.82749e-15,0.00014
1.82882e-15,0.00014
1.83016e-15,0.00014
1.8315e-15,0.00014
1.83284e-15,0.00014
1.83419e-15,0.00014
1.83554e-15,0.00014
1.83688e-15,0.00014
1.83824e-15,0.00014
1.83959e-15,0.00014
1.84094e-15,0.00014
1.8423e-15,0.00014
1.84366e-15,0.00014
1.84502e-15,0.00014
1.84638e-15,0.00014
1.84775e-15,0.00014
1.84911e-15,0.00014
1.85048e-15,0.00014
1.85185e-15,0.00014
1.85322e-15,0.00014
1.8546e-15,0.00014
1.85598e-15,0.00014
1.85736e-15,0.00014
1.85874e-15,0.00014
1.86012e-15,0.00014
1.8615e-15,0.00014
1.86289e-15,0.00014
1.86428e-15,0.00014
1.86567e-15,0.00014
1.86706e-15,0.00014
1.86846e-15,0.00014
1.86986e-15,0.00014
1.87126e-15,0.00015
1.87266e-15,0.00015
1.87406e-15,0.00015
1.87547e-15,0.00015
1.87688e-15,0.00015
1.87829e-15,0.00015
1.8797e-15,0.00015
1.88111e-15,0.00015
1.88253e-15,0.00015
1.88395e-15,0.00015
1.88537e-15,0.00015
1.88679e-15,0.00015
1.88822e-15,0.00015
1.88964e-15,0.00015
1.89107e-15,0.00015
1.89251e-15,0.00015
1.89394e-15,0.00015
1.89538e-15,0.00015
1.89681e-15,0.00015
1.89825e-15,0.00015
1.8997e-15,0.00015
1.90114e-15,0.00015
1.90259e-15,0.00015
1.90404e-15,0.00015
1.90549e-15,0.00015
1.90694e-15,0.00015
1.9084e-15,0.00015
1.90985e-15,0.00015
1.91131e-15,0.00015
1.91278e-15,0.00015
1.91424e-15,0.00015
1.91571e-15,0.00015
1.91718e-15,0.00015
1.91865e-15,0.00015
1.92012e-15,0.00015
1.9216e-15,0.00015
1.92308e-15,0.00015
1.92456e-15,0.00016
1.92604e-15,0.00016
1.92753e-15,0.00016
1.92901e-15,0.00016
1.9305e-15,0.00016
1.93199e-15,0.00016
1.93349e-15,0.00016
1.93498e-15,0.00016
1.93648e-15,0.00016
1.93798e-15,0.00016
1.93949e-15,0.00016
1.94099e-15,0.00016
1.9425e-15,0.00016
1.94401e-15,0.00016
1.94553e-15,0.00016
1.94704e-15,0.00016
1.94856e-15,0.00016
1.95008e-15,0.00016
1.9516e-15,0.00016
1.95313e-15,0.00016
1.95465e-15,0.00016
1.95618e-15,0.00016
1.95771e-15,0.00016
1.95925e-15,0.00016
1.96078e-15,0.00016
1.96232e-15,0.00016
1.96386e-15,0.00016
1.96541e-15,0.00016
1.96696e-15,0.00016
1.9685e-15,0.00016
1.97006e-15,0.00016
1.97161e-15,0.00016
1.97316e-15,0.00017
1.97472e-15,0.00017
1.97628e-15,0.00017
1.97785e-15,0.00017
1.97941e-15,0.00017
1.98098e-15,0.00017
1.98255e-15,0.00017
1.98413e-15,0.00017
1.9857e-15,0.00017
1.98728e-15,0.00017
1.98886e-15,0.00017
1.99045e-15,0.00017
1.99203e-15,0.00017
1.99362e-15,0.00017
1.99521e-15,0.00017
1.99681e-15,0.00017
1.9984e-15,0.00017
2e-15,0.00017
2.0016e-15,0.00017
2.00321e-15,0.00017
2.00481e-15,0.00017
2.00642e-15,0.00017
2.00803e-15,0.00017
2.00965e-15,0.00017
2.01126e-15,0.00017
2.01288e-15,0.00017
2.0145e-15,0.00017
2.01613e-15,0.00017
2.01776e-15,0.00017
2.01939e-15,0.00017
2.02102e-15,0.00018
2.02265e-15,0.00018
2.02429e-15,0.00018
2.02593e-15,0.00018
2.02758e-15,0.00018
2.02922e-15,0.00018
2.03087e-15,0.00018
2.03252e-15,0.00018
2.03417e-15,0.00018
2.03583e-15,0.00018
2.03749e-15,0.00018
2.03915e-15,0.00018
2.04082e-15,0.00018
2.04248e-15,0.00018
2.04415e-15,0.00018
2.04583e-15,0.00018
2.0475e-15,0.00018
2.04918e-15,0.00018
2.05086e-15,0.00018
2.05255e-15,0.00018
2.05423e-15,0.00018
2.05592e-15,0.00018
2.05761e-15,0.00018
2.05931e-15,0.00018
2.06101e-15,0.00018
2.06271e-15,0.00018
2.06441e-15,0.00019
2.06612e-15,0.00019
2.06782e-15,0.00019
2.06954e-15,0.00019
2.07125e-15,0.00019
2.07297e-15,0.00019
2.07469e-15,0.00019
2.07641e-15,0.00019
2.07814e-15,0.00019
2.07987e-15,0.00019
2.0816e-15,0.00019
2.08333e-15,0.00019
2.08507e-15,0.00019
2.08681e-15,0.00019
2.08855e-15,0.00019
2.0903e-15,0.00019
2.09205e-15,0.00019
2.0938e-15,0.00019
2.09556e-15,0.00019
2.09732e-15,0.00019
2.09908e-15,0.00019
2.10084e-15,0.00019
2.10261e-15,0.00019
2.10438e-15,0.00019
2.10615e-15,0.00019
2.10793e-15,0.0002
2.1097e-15,0.0002
2.11149e-15,0.0002
2.11327e-15,0.0002
2.11506e-15,0.0002
2.11685e-15,0.0002
2.11864e-15,0.0002
2.12044e-15,0.0002
2.12224e-15,0.0002
2.12404e-15,0.0002
2.12585e-15,0.0002
2.12766e-15,0.0002
2.12947e-15,0.0002
2.13129e-15,0.0002
2.13311e-15,0.0002
2.13493e-15,0.0002
2.13675e-15,0.0002
2.13858e-15,0.0002
2.14041e-15,0.0002
2.14225e-15,0.0002
2.14408e-15,0.0002
2.14592e-15,0.0002
2.14777e-15,0.00021
2.14961e-15,0.00021
2.15146e-15,0.00021
2.15332e-15,0.00021
2.15517e-15,0.00021
2.15703e-15,0.00021
2.15889e-15,0.00021
2.16076e-15,0.00021
2.16263e-15,0.00021
2.1645e-15,0.00021
2.16638e-15,0.00021
2.16826e-15,0.00021
2.17014e-15,0.00021
2.17202e-15,0.00021
2.17391e-15,0.00021
2.17581e-15,0.00021
2.1777e-15,0.00021
2.1796e-15,0.00021
2.1815e-15,0.00021
2.18341e-15,0.00021
2.18531e-15,0.00021
2.18723e-15,0.00022
2.18914e-15,0.00022
2.19106e-15,0.00022
2.19298e-15,0.00022
2.19491e-15,0.00022
2.19684e-15,0.00022
2.19877e-15,0.00022
2.2007e-15,0.00022
2.20264e-15,0.00022
2.20459e-15,0.00022
2.20653e-15,0.00022
2.20848e-15,0.00022
2.21043e-15,0.00022
2.21239e-15,0.00022
2.21435e-15,0.00022
2.21631e-15,0.00022
2.21828e-15,0.00022
2.22025e-15,0.00022
2.22222e-15,0.00022
2.2242e-15,0.00023
2.22618e-15,0.00023
2.22816e-15,0.00023
2.23015e-15,0.00023
2.23214e-15,0.00023
2.23414e-15,0.00023
2.23614e-15,0.00023
2.23814e-15,0.00023
2.24014e-15,0.00023
2.24215e-15,0.00023
2.24417e-15,0.00023
2.24618e-15,0.00023
2.2482e-15,0.00023
2.25023e-15,0.00023
2.25225e-15,0.00023
2.25428e-15,0.00023
2.25632e-15,0.00023
2.25836e-15,0.00024
2.2604e-15,0.00024
2.26244e-15,0.00024
2.26449e-15,0.00024
2.26655e-15,0.00024
2.2686e-15,0.00024
2.27066e-15,0.00024
2.27273e-15,0.00024
2.2748e-15,0.00024
2.27687e-15,0.00024
2.27894e-15,0.00024
2.28102e-15,0.00024
2.28311e-15,0.00024
2.28519e-15,0.00024
2.28728e-15,0.00024
2.28938e-15,0.00024
2.29148e-15,0.00024
2.29358e-15,0.00025
2.29568e-15,0.00025
2.29779e-15,0.00025
2.29991e-15,0.00025
2.30203e-15,0.00025
2.30415e-15,0.00025
2.30627e-15,0.00025
2.3084e-15,0.00025
2.31054e-15,0.00025
2.31267e-15,0.00025
2.31481e-15,0.00025
2.31696e-15,0.00025
2.31911e-15,0.00025
2.32126e-15,0.00025
2.32342e-15,0.00025
2.32558e-15,0.00025
2.32775e-15,0.00026
2.32992e-15,0.00026
2.33209e-15,0.00026
2.33427e-15,0.00026
2.33645e-15,0.00026
2.33863e-15,0.00026
2.34082e-15,0.00026
2.34302e-15,0.00026
2.34522e-15,0.00026
2.34742e-15,0.00026
2.34962e-15,0.00026
2.35183e-15,0.00026
2.35405e-15,0.00026
2.35627e-15,0.00026
2.35849e-15,0.00027
2.36072e-15,0.00027
2.36295e-15,0.00027
2.36518e-15,0.00027
2.36742e-15,0.00027
2.36967e-15,0.00027
2.37192e-15,0.00027
2.37417e-15,0.00027
2.37643e-15,0.00027
2.37869e-15,0.00027
2.38095e-15,0.00027
2.38322e-15,0.00027
2.3855e-15,0.00027
2.38777e-15,0.00027
2.39006e-15,0.00028
2.39234e-15,0.00028
2.39464e-15,0.00028
2.39693e-15,0.00028
2.39923e-15,0.00028
2.40154e-15,0.00028
2.40385e-15,0.00028
2.40616e-15,0.00028
2.40848e-15,0.00028
2.4108e-15,0.00028
2.41313e-15,0.00028
2.41546e-15,0.00028
2.41779e-15,0.00028
2.42014e-15,0.00029
2.42248e-15,0.00029
2.42483e-15,0.00029
2.42718e-15,0.00029
2.42954e-15,0.00029
2.43191e-15,0.00029
2.43427e-15,0.00029
2.43665e-15,0.00029
2.43902e-15,0.00029
2.44141e-15,0.00029
2.44379e-15,0.00029
2.44618e-15,0.00029
2.44858e-15,0.00029
2.45098e-15,0.0003
2.45339e-15,0.0003
2.4558e-15,0.0003
2.45821e-15,0.0003
2.46063e-15,0.0003
2.46305e-15,0.0003
2.46548e-15,0.0003
2.46792e-15,0.0003
2.47036e-15,0.0003
2.4728e-15,0.0003
2.47525e-15,0.0003
2.4777e-15,0.0003
2.48016e-15,0.00031
2.48262e-15,0.00031
2.48509e-15,0.00031
2.48756e-15,0.00031
2.49004e-15,0.00031
2.49252e-15,0.00031
2.49501e-15,0.00031
2.4975e-15,0.00031
2.5e-15,0.00031
2.5025e-15,0.00031
2.50501e-15,0.00031
2.50752e-15,0.00032
2.51004e-15,0.00032
2.51256e-15,0.00032
2.51509e-15,0.00032
2.51762e-15,0.00032
2.52016e-15,0.00032
2.5227e-15,0.00032
2.52525e-15,0.00032
2.52781e-15,0.00032
2.53036e-15,0.00032
2.53293e-15,0.00032
2.5355e-15,0.00033
2.53807e-15,0.00033
2.54065e-15,0.00033
2.54323e-15,0.00033
2.54582e-15,0.00033
2.54842e-15,0.00033
2.55102e-15,0.00033
2.55363e-15,0.00033
2.55624e-15,0.00033
2.55885e-15,0.00033
2.56148e-15,0.00034
2.5641e-15,0.00034
2.56674e-15,0.00034
2.56937e-15,0.00034
2.57202e-15,0.00034
2.57467e-15,0.00034
2.57732e-15,0.00034
2.57998e-15,0.00034
2.58264e-15,0.00034
2.58532e-15,0.00034
2.58799e-15,0.00035
2.59067e-15,0.00035
2.59336e-15,0.00035
2.59605e-15,0.00035
2.59875e-15,0.00035
2.60146e-15,0.00035
2.60417e-15,0.00035
2.60688e-15,0.00035
2.6096e-15,0.00035
2.61233e-15,0.00036
2.61506e-15,0.00036
2.6178e-15,0.00036
2.62055e-15,0.00036
2.62329e-15,0.00036
2.62605e-15,0.00036
2.62881e-15,0.00036
2.63158e-15,0.00036
2.63435e-15,0.00036
2.63713e-15,0.00037
2.63992e-15,0.00037
2.64271e-15,0.00037
2.6455e-15,0.00037
2.64831e-15,0.00037
2.65111e-15,0.00037
2.65393e-15,0.00037
2.65675e-15,0.00037
2.65957e-15,0.00037
2.66241e-15,0.00038
2.66525e-15,0.00038
2.66809e-15,0.00038
2.67094e-15,0.00038
2.6738e-15,0.00038
2.67666e-15,0.00038
2.67953e-15,0.00038
2.6824e-15,0.00038
2.68528e-15,0.00039
2.68817e-15,0.00039
2.69107e-15,0.00039
2.69397e-15,0.00039
2.69687e-15,0.00039
2.69978e-15,0.00039
2.7027e-15,0.00039
2.70563e-15,0.00039
2.70856e-15,0.0004
2.7115e-15,0.0004
2.71444e-15,0.0004
2.71739e-15,0.0004
2.72035e-15,0.0004
2.72331e-15,0.0004
2.72628e-15,0.0004
2.72926e-15,0.0004
2.73224e-15,0.00041
2.73523e-15,0.00041
2.73823e-15,0.00041
2.74123e-15,0.00041
2.74424e-15,0.00041
2.74725e-15,0.00041
2.75028e-15,0.00041
2.7533e-15,0.00042
2.75634e-15,0.00042
2.75938e-15,0.00042
2.76243e-15,0.00042
2.76549e-15,0.00042
2.76855e-15,0.00042
2.77162e-15,0.00042
2.77469e-15,0.00043
2.77778e-15,0.00043
2.78087e-15,0.00043
2.78396e-15,0.00043
2.78707e-15,0.00043
2.79018e-15,0.00043
2.7933e-15,0.00043
2.79642e-15,0.00044
2.79955e-15,0.00044
2.80269e-15,0.00044
2.80584e-15,0.00044
2.80899e-15,0.00044
2.81215e-15,0.00044
2.81532e-15,0.00044
2.81849e-15,0.00045
2.82167e-15,0.00045
2.82486e-15,0.00045
2.82805e-15,0.00045
2.83126e-15,0.00045
2.83447e-15,0.00045
2.83768e-15,0.00046
2.84091e-15,0.00046
2.84414e-15,0.00046
2.84738e-15,0.00046
2.85063e-15,0.00046
2.85388e-15,0.00046
2.85714e-15,0.00047
2.86041e-15,0.00047
2.86369e-15,0.00047
2.86697e-15,0.00047
2.87026e-15,0.00047
2.87356e-15,0.00047
2.87687e-15,0.00048
2.88018e-15,0.00048
2.88351e-15,0.00048
2.88684e-15,0.00048
2.89017e-15,0.00048
2.89352e-15,0.00048
2.89687e-15,0.00049
2.90023e-15,0.00049
2.9036e-15,0.00049
2.90698e-15,0.00049
2.91036e-15,0.00049
2.91375e-15,0.00049
2.91715e-15,0.0005
2.92056e-15,0.0005
2.92398e-15,0.0005
2.9274e-15,0.0005
2.93083e-15,0.0005
2.93427e-15,0.0005
2.93772e-15,0.00051
2.94118e-15,0.00051
2.94464e-15,0.00051
2.94811e-15,0.00051
2.95159e-15,0.00051
2.95508e-15,0.00052
2.95858e-15,0.00052
2.96209e-15,0.00052
2.9656e-15,0.00052
2.96912e-15,0.00052
2.97265e-15,0.00053
2.97619e-15,0.00053
2.97974e-15,0.00053
2.98329e-15,0.00053
2.98686e-15,0.00053
2.99043e-15,0.00054
2.99401e-15,0.00054
2.9976e-15,0.00054
3.0012e-15,0.00054
3.00481e-15,0.00054
3.00842e-15,0.00055
3.01205e-15,0.00055
3.01568e-15,0.00055
3.01932e-15,0.00055
3.02297e-15,0.00055
3.02663e-15,0.00056
3.0303e-15,0.00056
3.03398e-15,0.00056
3.03767e-15,0.00056
3.04136e-15,0.00056
3.04507e-15,0.00057
3.04878e-15,0.00057
3.0525e-15,0.00057
3.05623e-15,0.00057
3.05998e-15,0.00058
3.06373e-15,0.00058
3.06748e-15,0.00058
3.07125e-15,0.00058
3.07503e-15,0.00058
3.07882e-15,0.00059
3.08261e-15,0.00059
3.08642e-15,0.00059
3.09023e-15,0.00059
3.09406e-15,0.0006
3.09789e-15,0.0006
3.10174e-15,0.0006
3.10559e-15,0.0006
3.10945e-15,0.00061
3.11333e-15,0.00061
3.11721e-15,0.00061
3.1211e-15,0.00061
3.125e-15,0.00061
3.12891e-15,0.00062
3.13283e-15,0.00062
3.13676e-15,0.00062
3.1407e-15,0.00062
3.14465e-15,0.00063
3.14861e-15,0.00063
3.15259e-15,0.00063
3.15657e-15,0.00063
3.16056e-15,0.00064
3.16456e-15,0.00064
3.16857e-15,0.00064
3.17259e-15,0.00064
3.17662e-15,0.00065
3.18066e-15,0.00065
3.18471e-15,0.00065
3.18878e-15,0.00066
3.19285e-15,0.00066
3.19693e-15,0.00066
3.20102e-15,0.00066
3.20513e-15,0.00067
3.20924e-15,0.00067
3.21337e-15,0.00067
3.2175e-15,0.00067
3.22165e-15,0.00068
3.22581e-15,0.00068
3.22997e-15,0.00068
3.23415e-15,0.00069
3.23834e-15,0.00069
3.24254e-15,0.00069
3.24675e-15,0.00069
3.25098e-15,0.0007
3.25521e-15,0.0007
3.25945e-15,0.0007
3.26371e-15,0.00071
3.26797e-15,0.00071
3.27225e-15,0.00071
3.27654e-15,0.00072
3.28084e-15,0.00072
3.28515e-15,0.00072
3.28947e-15,0.00072
3.29381e-15,0.00073
3.29815e-15,0.00073
3.30251e-15,0.00073
3.30688e-15,0.00074
3.31126e-15,0.00074
3.31565e-15,0.00074
3.32005e-15,0.00075
3.32447e-15,0.00075
3.32889e-15,0.00075
3.33333e-15,0.00076
3.33778e-15,0.00076
3.34225e-15,0.00076
3.34672e-15,0.00077
3.35121e-15,0.00077
3.3557e-15,0.00077
3.36022e-15,0.00078
3.36474e-15,0.00078
3.36927e-15,0.00078
3.37382e-15,0.00079
3.37838e-15,0.00079
3.38295e-15,0.00079
3.38753e-15,0.0008
3.39213e-15,0.0008
3.39674e-15,0.0008
3.40136e-15,0.00081
3.40599e-15,0.00081
3.41064e-15,0.00082
3.4153e-15,0.00082
3.41997e-15,0.00082
3.42466e-15,0.00083
3.42936e-15,0.00083
3.43407e-15,0.00083
3.43879e-15,0.00084
3.44353e-15,0.00084
3.44828e-15,0.00085
3.45304e-15,0.00085
3.45781e-15,0.00085
3.4626e-15,0.00086
3.46741e-15,0.00086
3.47222e-15,0.00086
3.47705e-15,0.00087
3.48189e-15,0.00087
3.48675e-15,0.00088
3.49162e-15,0.00088
3.4965e-15,0.00088
3.5014e-15,0.00089
3.50631e-15,0.00089
3.51124e-15,0.0009
3.51617e-15,0.0009
3.52113e-15,0.00091
3.52609e-15,0.00091
3.53107e-15,0.00091
3.53607e-15,0.00092
3.54108e-15,0.00092
3.5461e-15,0.00093
3.55114e-15,0.00093
3.55619e-15,0.00094
3.56125e-15,0.00094
3.56633e-15,0.00094
3.57143e-15,0.00095
3.57654e-15,0.00095
3.58166e-15,0.00096
3.5868e-15,0.00096
3.59195e-15,0.00097
3.59712e-15,0.00097
3.60231e-15,0.00098
3.6075e-15,0.00098
3.61272e-15,0.00099
3.61795e-15,0.00099
3.62319e-15,0.001
3.62845e-15,0.001
3.63372e-15,0.00101
3.63901e-15,0.00101
3.64431e-15,0.00102
3.64964e-15,0.00102
3.65497e-15,0.00103
3.66032e-15,0.00103
3.66569e-15,0.00104
3.67107e-15,0.00104
3.67647e-15,0.00105
3.68189e-15,0.00105
3.68732e-15,0.00106
3.69276e-15,0.00106
3.69822e-15,0.00107
3.7037e-15,0.00107
3.7092e-15,0.00108
3.71471e-15,0.00108
3.72024e-15,0.00109
3.72578e-15,0.0011
3.73134e-15,0.0011
3.73692e-15,0.00111
3.74251e-15,0.00111
3.74813e-15,0.00112
3.75375e-15,0.00112
3.7594e-15,0.00113
3.76506e-15,0.00114
3.77074e-15,0.00114
3.77644e-15,0.00115
3.78215e-15,0.00115
3.78788e-15,0.00116
3.79363e-15,0.00117
3.79939e-15,0.00117
3.80518e-15,0.00118
3.81098e-15,0.00118
3.81679e-15,0.00119
3.82263e-15,0.0012
3.82848e-15,0.0012
3.83436e-15,0.00121
3.84025e-15,0.00122
3.84615e-15,0.00122
3.85208e-15,0.00123
3.85802e-15,0.00124
3.86399e-15,0.00124
3.86997e-15,0.00125
3.87597e-15,0.00126
3.88199e-15,0.00126
3.88802e-15,0.00127
3.89408e-15,0.00128
3.90016e-15,0.00128
3.90625e-15,0.00129
3.91236e-15,0.0013
3.9185e-15,0.0013
3.92465e-15,0.00131
3.93082e-15,0.00132
3.93701e-15,0.00133
3.94322e-15,0.00133
3.94945e-15,0.00134
3.9557e-15,0.00135
3.96197e-15,0.00136
3.96825e-15,0.00136
3.97456e-15,0.00137
3.98089e-15,0.00138
3.98724e-15,0.00139
3.99361e-15,0.00139
4e-15,0.0014
4.00641e-15,0.00141
4.01284e-15,0.00142
4.01929e-15,0.00143
4.02576e-15,0.00143
4.03226e-15,0.00144
4.03877e-15,0.00145
4.04531e-15,0.00146
4.05186e-15,0.00147
4.05844e-15,0.00148
4.06504e-15,0.00148
4.07166e-15,0.00149
4.0783e-15,0.0015
4.08497e-15,0.00151
4.09165e-15,0.00152
4.09836e-15,0.00153
4.10509e-15,0.00154
4.11184e-15,0.00155
4.11862e-15,0.00155
4.12541e-15,0.00156
4.13223e-15,0.00157
4.13907e-15,0.00158
4.14594e-15,0.00159
4.15282e-15,0.0016
4.15973e-15,0.00161
4.16667e-15,0.00162
4.17362e-15,0.00163
4.1806e-15,0.00164
4.1876e-15,0.00165
4.19463e-15,0.00166
4.20168e-15,0.00167
4.20875e-15,0.00168
4.21585e-15,0.00169
4.22297e-15,0.0017
4.23012e-15,0.00171
4.23729e-15,0.00172
4.24448e-15,0.00173
4.2517e-15,0.00174
4.25894e-15,0.00175
4.26621e-15,0.00177
4.2735e-15,0.00178
4.28082e-15,0.00179
4.28816e-15,0.0018
4.29553e-15,0.00181
4.30293e-15,0.00182
4.31034e-15,0.00183
4.31779e-15,0.00184
4.32526e-15,0.00186
4.33276e-15,0.00187
4.34028e-15,0.00188
4.34783e-15,0.00189
4.3554e-15,0.0019
4.363e-15,0.00192
4.37063e-15,0.00193
4.37828e-15,0.00194
4.38596e-15,0.00195
4.39367e-15,0.00197
4.40141e-15,0.00198
4.40917e-15,0.00199
4.41696e-15,0.00201
4.42478e-15,0.00202
4.43262e-15,0.00203
4.4405e-15,0.00205
4.4484e-15,0.00206
4.45633e-15,0.00207
4.46429e-15,0.00209
4.47227e-15,0.0021
4.48029e-15,0.00212
4.48833e-15,0.00213
4.4964e-15,0.00214
4.5045e-15,0.00216
4.51264e-15,0.00217
4.5208e-15,0.00219
4.52899e-15,0.0022
4.53721e-15,0.00222
4.54545e-15,0.00223
4.55373e-15,0.00225
4.56204e-15,0.00226
4.57038e-15,0.00228
4.57875e-15,0.0023
4.58716e-15,0.00231
4.59559e-15,0.00233
4.60405e-15,0.00234
4.61255e-15,0.00236
4.62107e-15,0.00238
4.62963e-15,0.00239
4.63822e-15,0.00241
4.64684e-15,0.00243
4.65549e-15,0.00245
4.66418e-15,0.00246
4.6729e-15,0.00248
4.68165e-15,0.0025
4.69043e-15,0.00252
4.69925e-15,0.00254
4.7081e-15,0.00255
4.71698e-15,0.00257
4.7259e-15,0.00259
4.73485e-15,0.00261
4.74383e-15,0.00263
4.75285e-15,0.00265
4.7619e-15,0.00267
4.77099e-15,0.00269
4.78011e-15,0.00271
4.78927e-15,0.00273
4.79846e-15,0.00275
4.80769e-15,0.00277
4.81696e-15,0.00279
4.82625e-15,0.00281
4.83559e-15,0.00283
4.84496e-15,0.00286
4.85437e-15,0.00288
4.86381e-15,0.0029
4.87329e-15,0.00292
4.88281e-15,0.00294
4.89237e-15,0.00297
4.90196e-15,0.00299
4.91159e-15,0.00301
4.92126e-15,0.00304
4.93097e-15,0.00306
4.94071e-15,0.00308
4.9505e-15,0.00311
4.96032e-15,0.00313
4.97018e-15,0.00316
4.98008e-15,0.00318
4.99002e-15,0.00321
5e-15,0.00323
5.01002e-15,0.00326
5.02008e-15,0.00329
5.03018e-15,0.00331
5.04032e-15,0.00334
5.05051e-15,0.00337
5.06073e-15,0.0034
5.07099e-15,0.00342
5.0813e-15,0.00345
5.09165e-15,0.00348
5.10204e-15,0.00351
5.11247e-15,0.00354
5.12295e-15,0.00357
5.13347e-15,0.0036
5.14403e-15,0.00363
5.15464e-15,0.00366
5.16529e-15,0.00369
5.17598e-15,0.00372
5.18672e-15,0.00375
5.19751e-15,0.00379
5.20833e-15,0.00382
5.21921e-15,0.00385
5.23013e-15,0.00388
5.24109e-15,0.00392
5.2521e-15,0.00395
5.26316e-15,0.00399
5.27426e-15,0.00402
5.28541e-15,0.00406
5.29661e-15,0.00409
5.30786e-15,0.00413
5.31915e-15,0.00417
5.33049e-15,0.0042
5.34188e-15,0.00424
5.35332e-15,0.00428
5.36481e-15,0.00432
5.37634e-15,0.00436
5.38793e-15,0.0044
5.39957e-15,0.00444
5.41126e-15,0.00448
5.42299e-15,0.00452
5.43478e-15,0.00456
5.44662e-15,0.0046
5.45852e-15,0.00465
5.47046e-15,0.00469
5.48246e-15,0.00473
5.49451e-15,0.00478
5.50661e-15,0.00482
5.51876e-15,0.00487
5.53097e-15,0.00492
5.54324e-15,0.00496
5.55556e-15,0.00501
5.56793e-15,0.00506
5.58036e-15,0.00511
5.59284e-15,0.00516
5.60538e-15,0.00521
5.61798e-15,0.00526
5.63063e-15,0.00531
5.64334e-15,0.00536
5.65611e-15,0.00542
5.66893e-15,0.00547
5.68182e-15,0.00553
5.69476e-15,0.00558
5.70776e-15,0.00564
5.72082e-15,0.00569
5.73394e-15,0.00575
5.74713e-15,0.00581
5.76037e-15,0.00587
5.77367e-15,0.00593
5.78704e-15,0.00599
5.80046e-15,0.00605
5.81395e-15,0.00612
5.82751e-15,0.00618
5.84112e-15,0.00625
5.8548e-15,0.00631
5.86854e-15,0.00638
5.88235e-15,0.00645
5.89623e-15,0.00651
5.91017e-15,0.00658
5.92417e-15,0.00666
5.93824e-15,0.00673
5.95238e-15,0.0068
5.96659e-15,0.00687
5.98086e-15,0.00695
5.9952e-15,0.00703
6.00962e-15,0.0071
6.0241e-15,0.00718
6.03865e-15,0.00726
6.05327e-15,0.00734
6.06796e-15,0.00743
6.08273e-15,0.00751
6.09756e-15,0.0076
6.11247e-15,0.00768
6.12745e-15,0.00777
6.14251e-15,0.00786
6.15764e-15,0.00795
6.17284e-15,0.00804
6.18812e-15,0.00814
6.20347e-15,0.00823
6.21891e-15,0.00833
6.23441e-15,0.00843
6.25e-15,0.00853
6.26566e-15,0.00863
6.28141e-15,0.00873
6.29723e-15,0.00884
6.31313e-15,0.00894
6.32911e-15,0.00905
6.34518e-15,0.00916
6.36132e-15,0.00927
6.37755e-15,0.00939
6.39386e-15,0.00951
6.41026e-15,0.00962
6.42674e-15,0.00974
6.4433e-15,0.00987
6.45995e-15,0.00999
6.47668e-15,0.01012
6.49351e-15,0.01025
6.51042e-15,0.01038
6.52742e-15,0.01051
6.5445e-15,0.01065
6.56168e-15,0.01078
6.57895e-15,0.01093
6.59631e-15,0.01107
6.61376e-15,0.01121
6.6313e-15,0.01136
6.64894e-15,0.01151
6.66667e-15,0.01167
6.68449e-15,0.01183
6.70241e-15,0.01199
6.72043e-15,0.01215
6.73854e-15,0.01231
6.75676e-15,0.01248
6.77507e-15,0.01265
6.79348e-15,0.01283
6.81199e-15,0.01301
6.8306e-15,0.01319
6.84932e-15,0.01338
6.86813e-15,0.01357
6.88705e-15,0.01376
6.90608e-15,0.01396
6.92521e-15,0.01416
6.94444e-15,0.01436
6.96379e-15,0.01457
6.98324e-15,0.01478
7.0028e-15,0.015
7.02247e-15,0.01522
7.04225e-15,0.01545
7.06215e-15,0.01568
7.08215e-15,0.01591
7.10227e-15,0.01615
7.12251e-15,0.0164
7.14286e-15,0.01665
7.16332e-15,0.0169
7.18391e-15,0.01716
7.20461e-15,0.01743
7.22543e-15,0.0177
7.24638e-15,0.01798
7.26744e-15,0.01826
7.28863e-15,0.01855
7.30994e-15,0.01885
7.33138e-15,0.01915
7.35294e-15,0.01946
7.37463e-15,0.01978
7.39645e-15,0.0201
7.4184e-15,0.02043
7.44048e-15,0.02077
7.46269e-15,0.02111
7.48503e-15,0.02146
7.50751e-15,0.02182
7.53012e-15,0.02219
7.55287e-15,0.02257
7.57576e-15,0.02296
7.59878e-15,0.02335
7.62195e-15,0.02376
7.64526e-15,0.02417
7.66871e-15,0.02459
7.69231e-15,0.02503
7.71605e-15,0.02547
7.73994e-15,0.02592
7.76398e-15,0.02639
7.78816e-15,0.02687
7.8125e-15,0.02736
7.83699e-15,0.02786
7.86164e-15,0.02837
7.88644e-15,0.02889
7.91139e-15,0.02943
7.93651e-15,0.02999
7.96178e-15,0.03055
7.98722e-15,0.03113
8.01282e-15,0.03173
8.03859e-15,0.03234
8.06452e-15,0.03297
8.09061e-15,0.03361
8.11688e-15,0.03427
8.14332e-15,0.03495
8.16993e-15,0.03564
8.19672e-15,0.03636
8.22368e-15,0.03709
8.25083e-15,0.03784
8.27815e-15,0.03862
8.30565e-15,0.03941
8.33333e-15,0.04023
8.3612e-15,0.04107
8.38926e-15,0.04193
8.41751e-15,0.04282
8.44595e-15,0.04373
8.47458e-15,0.04467
8.5034e-15,0.04564
8.53242e-15,0.04663
8.56164e-15,0.04766
8.59107e-15,0.04871
8.62069e-15,0.0498
8.65052e-15,0.05091
8.68056e-15,0.05207
8.7108e-15,0.05325
8.74126e-15,0.05447
8.77193e-15,0.05573
8.80282e-15,0.05703
8.83392e-15,0.05837
8.86525e-15,0.05976
8.8968e-15,0.06118
8.92857e-15,0.06265
8.96057e-15,0.06417
8.99281e-15,0.06574
9.02527e-15,0.06736
9.05797e-15,0.06904
9.09091e-15,0.07077
9.12409e-15,0.07256
9.15751e-15,0.07441
9.19118e-15,0.07632
9.22509e-15,0.0783
9.25926e-15,0.08035
9.29368e-15,0.08247
9.32836e-15,0.08467
9.3633e-15,0.08695
9.3985e-15,0.08931
9.43396e-15,0.09176
9.4697e-15,0.09429
9.5057e-15,0.09693
9.54198e-15,0.09966
9.57854e-15,0.1025
9.61538e-15,0.10544
9.65251e-15,0.10851
9.68992e-15,0.11169
9.72763e-15,0.115
9.76563e-15,0.11845
9.80392e-15,0.12204
9.84252e-15,0.12578
9.88142e-15,0.12967
9.92063e-15,0.13373
9.96016e-15,0.13797
1e-14,0.14239
1.004016e-14,0.14701
1.008065e-14,0.15184
1.012146e-14,0.15689
1.01626e-14,0.16217
1.020408e-14,0.1677
1.02459e-14,0.17349
1.028807e-14,0.17956
1.033058e-14,0.18594
1.037344e-14,0.19263
1.041667e-14,0.19966
1.046025e-14,0.20705
1.05042e-14,0.21483
1.054852e-14,0.22302
1.059322e-14,0.23165
1.06383e-14,0.24076
1.068376e-14,0.25037
1.072961e-14,0.26052
1.077586e-14,0.27126
1.082251e-14,0.28262
1.086957e-14,0.29464
1.091703e-14,0.30737
1.096491e-14,0.32087
1.101322e-14,0.33517
1.106195e-14,0.35034
1.111111e-14,0.36642
1.116071e-14,0.38346
1.121076e-14,0.4015
1.126126e-14,0.4206
1.131222e-14,0.44079
1.136364e-14,0.46208
1.141553e-14,0.48449
1.146789e-14,0.50803
1.152074e-14,0.53266
1.157407e-14,0.55836
1.162791e-14,0.58507
1.168224e-14,0.61272
1.173709e-14,0.64122
1.179245e-14,0.67048
1.184834e-14,0.70039
1.190476e-14,0.73086
1.196172e-14,0.76178
1.201923e-14,0.79306
1.207729e-14,0.82459
1.213592e-14,0.85631
1.219512e-14,0.88814
1.22549e-14,0.92002
1.231527e-14,0.95191
1.237624e-14,0.98374
1.243781e-14,1.0155
1.25e-14,1.04716
1.256281e-14,1.07869
1.262626e-14,1.11007
1.269036e-14,1.1413
1.27551e-14,1.17237
1.282051e-14,1.20327
1.28866e-14,1.23399
1.295337e-14,1.26455
1.302083e-14,1.29493
1.308901e-14,1.32514
1.315789e-14,1.35518
1.322751e-14,1.38506
1.329787e-14,1.41478
1.336898e-14,1.44434
1.344086e-14,1.47374
1.351351e-14,1.503
1.358696e-14,1.53211
1.36612e-14,1.56108
1.373626e-14,1.58992
1.381215e-14,1.61863
1.388889e-14,1.64721
1.396648e-14,1.67567
1.404494e-14,1.70401
1.412429e-14,1.73223
1.420455e-14,1.76035
1.428571e-14,1.78836
